# E (eV)  dos(E)    pdos(E)
  -6.113  0.619E-04  0.618E-04
  -6.103  0.966E-04  0.963E-04
  -6.093  0.149E-03  0.149E-03
  -6.083  0.228E-03  0.227E-03
  -6.073  0.344E-03  0.343E-03
  -6.063  0.515E-03  0.513E-03
  -6.053  0.762E-03  0.759E-03
  -6.043  0.112E-02  0.111E-02
  -6.033  0.162E-02  0.161E-02
  -6.023  0.232E-02  0.231E-02
  -6.013  0.329E-02  0.328E-02
  -6.003  0.462E-02  0.461E-02
  -5.993  0.642E-02  0.640E-02
  -5.983  0.883E-02  0.881E-02
  -5.973  0.120E-01  0.120E-01
  -5.963  0.162E-01  0.162E-01
  -5.953  0.216E-01  0.215E-01
  -5.943  0.285E-01  0.284E-01
  -5.933  0.372E-01  0.371E-01
  -5.923  0.482E-01  0.480E-01
  -5.913  0.616E-01  0.614E-01
  -5.903  0.781E-01  0.778E-01
  -5.893  0.979E-01  0.976E-01
  -5.883  0.121E+00  0.121E+00
  -5.873  0.149E+00  0.149E+00
  -5.863  0.182E+00  0.181E+00
  -5.853  0.219E+00  0.218E+00
  -5.843  0.261E+00  0.260E+00
  -5.833  0.308E+00  0.307E+00
  -5.823  0.360E+00  0.359E+00
  -5.813  0.417E+00  0.416E+00
  -5.803  0.478E+00  0.477E+00
  -5.793  0.543E+00  0.542E+00
  -5.783  0.611E+00  0.609E+00
  -5.773  0.681E+00  0.679E+00
  -5.763  0.753E+00  0.751E+00
  -5.753  0.824E+00  0.822E+00
  -5.743  0.894E+00  0.892E+00
  -5.733  0.962E+00  0.959E+00
  -5.723  0.103E+01  0.102E+01
  -5.713  0.109E+01  0.108E+01
  -5.703  0.114E+01  0.114E+01
  -5.693  0.119E+01  0.118E+01
  -5.683  0.123E+01  0.122E+01
  -5.673  0.126E+01  0.125E+01
  -5.663  0.128E+01  0.128E+01
  -5.653  0.130E+01  0.129E+01
  -5.643  0.130E+01  0.130E+01
  -5.633  0.130E+01  0.130E+01
  -5.623  0.130E+01  0.129E+01
  -5.613  0.128E+01  0.128E+01
  -5.603  0.126E+01  0.126E+01
  -5.593  0.124E+01  0.124E+01
  -5.583  0.121E+01  0.121E+01
  -5.573  0.118E+01  0.117E+01
  -5.563  0.114E+01  0.114E+01
  -5.553  0.111E+01  0.111E+01
  -5.543  0.107E+01  0.107E+01
  -5.533  0.104E+01  0.103E+01
  -5.523  0.100E+01  0.999E+00
  -5.513  0.969E+00  0.966E+00
  -5.503  0.937E+00  0.934E+00
  -5.493  0.907E+00  0.904E+00
  -5.483  0.879E+00  0.877E+00
  -5.473  0.854E+00  0.852E+00
  -5.463  0.832E+00  0.829E+00
  -5.453  0.811E+00  0.809E+00
  -5.443  0.793E+00  0.791E+00
  -5.433  0.777E+00  0.774E+00
  -5.423  0.762E+00  0.759E+00
  -5.413  0.748E+00  0.746E+00
  -5.403  0.736E+00  0.733E+00
  -5.393  0.723E+00  0.721E+00
  -5.383  0.711E+00  0.709E+00
  -5.373  0.699E+00  0.697E+00
  -5.363  0.687E+00  0.685E+00
  -5.353  0.675E+00  0.673E+00
  -5.343  0.662E+00  0.660E+00
  -5.333  0.648E+00  0.646E+00
  -5.323  0.635E+00  0.633E+00
  -5.313  0.621E+00  0.619E+00
  -5.303  0.607E+00  0.605E+00
  -5.293  0.593E+00  0.591E+00
  -5.283  0.580E+00  0.578E+00
  -5.273  0.568E+00  0.566E+00
  -5.263  0.556E+00  0.554E+00
  -5.253  0.546E+00  0.544E+00
  -5.243  0.537E+00  0.535E+00
  -5.233  0.529E+00  0.527E+00
  -5.223  0.523E+00  0.522E+00
  -5.213  0.519E+00  0.517E+00
  -5.203  0.517E+00  0.515E+00
  -5.193  0.516E+00  0.514E+00
  -5.183  0.516E+00  0.514E+00
  -5.173  0.517E+00  0.516E+00
  -5.163  0.520E+00  0.518E+00
  -5.153  0.523E+00  0.521E+00
  -5.143  0.527E+00  0.525E+00
  -5.133  0.530E+00  0.528E+00
  -5.123  0.534E+00  0.532E+00
  -5.113  0.536E+00  0.534E+00
  -5.103  0.538E+00  0.536E+00
  -5.093  0.538E+00  0.536E+00
  -5.083  0.537E+00  0.535E+00
  -5.073  0.535E+00  0.533E+00
  -5.063  0.530E+00  0.528E+00
  -5.053  0.524E+00  0.522E+00
  -5.043  0.516E+00  0.514E+00
  -5.033  0.506E+00  0.504E+00
  -5.023  0.494E+00  0.492E+00
  -5.013  0.481E+00  0.480E+00
  -5.003  0.467E+00  0.466E+00
  -4.993  0.453E+00  0.451E+00
  -4.983  0.437E+00  0.436E+00
  -4.973  0.422E+00  0.421E+00
  -4.963  0.408E+00  0.406E+00
  -4.953  0.394E+00  0.392E+00
  -4.943  0.382E+00  0.380E+00
  -4.933  0.371E+00  0.369E+00
  -4.923  0.362E+00  0.361E+00
  -4.913  0.356E+00  0.355E+00
  -4.903  0.352E+00  0.351E+00
  -4.893  0.351E+00  0.350E+00
  -4.883  0.353E+00  0.351E+00
  -4.873  0.357E+00  0.356E+00
  -4.863  0.364E+00  0.363E+00
  -4.853  0.373E+00  0.372E+00
  -4.843  0.385E+00  0.383E+00
  -4.833  0.398E+00  0.396E+00
  -4.823  0.412E+00  0.410E+00
  -4.813  0.426E+00  0.425E+00
  -4.803  0.441E+00  0.440E+00
  -4.793  0.456E+00  0.454E+00
  -4.783  0.469E+00  0.468E+00
  -4.773  0.481E+00  0.480E+00
  -4.763  0.492E+00  0.490E+00
  -4.753  0.499E+00  0.498E+00
  -4.743  0.504E+00  0.503E+00
  -4.733  0.506E+00  0.504E+00
  -4.723  0.505E+00  0.503E+00
  -4.713  0.500E+00  0.498E+00
  -4.703  0.492E+00  0.490E+00
  -4.693  0.481E+00  0.479E+00
  -4.683  0.467E+00  0.465E+00
  -4.673  0.449E+00  0.448E+00
  -4.663  0.430E+00  0.428E+00
  -4.653  0.409E+00  0.407E+00
  -4.643  0.386E+00  0.384E+00
  -4.633  0.363E+00  0.361E+00
  -4.623  0.339E+00  0.338E+00
  -4.613  0.316E+00  0.315E+00
  -4.603  0.295E+00  0.293E+00
  -4.593  0.275E+00  0.274E+00
  -4.583  0.257E+00  0.256E+00
  -4.573  0.243E+00  0.242E+00
  -4.563  0.231E+00  0.230E+00
  -4.553  0.223E+00  0.222E+00
  -4.543  0.219E+00  0.218E+00
  -4.533  0.218E+00  0.218E+00
  -4.523  0.222E+00  0.221E+00
  -4.513  0.229E+00  0.228E+00
  -4.503  0.240E+00  0.239E+00
  -4.493  0.255E+00  0.254E+00
  -4.483  0.272E+00  0.271E+00
  -4.473  0.292E+00  0.291E+00
  -4.463  0.314E+00  0.313E+00
  -4.453  0.337E+00  0.336E+00
  -4.443  0.362E+00  0.360E+00
  -4.433  0.387E+00  0.385E+00
  -4.423  0.411E+00  0.409E+00
  -4.413  0.434E+00  0.433E+00
  -4.403  0.456E+00  0.454E+00
  -4.393  0.476E+00  0.474E+00
  -4.383  0.492E+00  0.490E+00
  -4.373  0.506E+00  0.503E+00
  -4.363  0.515E+00  0.513E+00
  -4.353  0.521E+00  0.518E+00
  -4.343  0.522E+00  0.520E+00
  -4.333  0.518E+00  0.516E+00
  -4.323  0.511E+00  0.509E+00
  -4.313  0.499E+00  0.497E+00
  -4.303  0.483E+00  0.481E+00
  -4.293  0.463E+00  0.462E+00
  -4.283  0.441E+00  0.439E+00
  -4.273  0.415E+00  0.414E+00
  -4.263  0.388E+00  0.387E+00
  -4.253  0.359E+00  0.358E+00
  -4.243  0.330E+00  0.329E+00
  -4.233  0.301E+00  0.300E+00
  -4.223  0.272E+00  0.271E+00
  -4.213  0.245E+00  0.244E+00
  -4.203  0.219E+00  0.218E+00
  -4.193  0.196E+00  0.195E+00
  -4.183  0.175E+00  0.174E+00
  -4.173  0.158E+00  0.157E+00
  -4.163  0.144E+00  0.143E+00
  -4.153  0.133E+00  0.133E+00
  -4.143  0.127E+00  0.126E+00
  -4.133  0.124E+00  0.124E+00
  -4.123  0.126E+00  0.125E+00
  -4.113  0.132E+00  0.131E+00
  -4.103  0.141E+00  0.141E+00
  -4.093  0.155E+00  0.154E+00
  -4.083  0.173E+00  0.172E+00
  -4.073  0.194E+00  0.193E+00
  -4.063  0.218E+00  0.217E+00
  -4.053  0.245E+00  0.244E+00
  -4.043  0.274E+00  0.273E+00
  -4.033  0.305E+00  0.304E+00
  -4.023  0.337E+00  0.336E+00
  -4.013  0.370E+00  0.368E+00
  -4.003  0.402E+00  0.400E+00
  -3.993  0.433E+00  0.431E+00
  -3.983  0.461E+00  0.459E+00
  -3.973  0.488E+00  0.486E+00
  -3.963  0.510E+00  0.508E+00
  -3.953  0.529E+00  0.527E+00
  -3.943  0.543E+00  0.540E+00
  -3.933  0.551E+00  0.549E+00
  -3.923  0.555E+00  0.553E+00
  -3.913  0.553E+00  0.550E+00
  -3.903  0.545E+00  0.543E+00
  -3.893  0.533E+00  0.531E+00
  -3.883  0.515E+00  0.513E+00
  -3.873  0.494E+00  0.491E+00
  -3.863  0.468E+00  0.466E+00
  -3.853  0.440E+00  0.438E+00
  -3.843  0.409E+00  0.407E+00
  -3.833  0.377E+00  0.375E+00
  -3.823  0.344E+00  0.342E+00
  -3.813  0.311E+00  0.310E+00
  -3.803  0.279E+00  0.278E+00
  -3.793  0.248E+00  0.247E+00
  -3.783  0.219E+00  0.218E+00
  -3.773  0.193E+00  0.192E+00
  -3.763  0.169E+00  0.169E+00
  -3.753  0.149E+00  0.148E+00
  -3.743  0.131E+00  0.131E+00
  -3.733  0.118E+00  0.117E+00
  -3.723  0.107E+00  0.107E+00
  -3.713  0.101E+00  0.101E+00
  -3.703  0.984E-01  0.980E-01
  -3.693  0.995E-01  0.991E-01
  -3.683  0.104E+00  0.104E+00
  -3.673  0.113E+00  0.113E+00
  -3.663  0.126E+00  0.125E+00
  -3.653  0.142E+00  0.141E+00
  -3.643  0.161E+00  0.160E+00
  -3.633  0.184E+00  0.183E+00
  -3.623  0.210E+00  0.209E+00
  -3.613  0.238E+00  0.237E+00
  -3.603  0.269E+00  0.268E+00
  -3.593  0.301E+00  0.300E+00
  -3.583  0.335E+00  0.334E+00
  -3.573  0.370E+00  0.368E+00
  -3.563  0.405E+00  0.403E+00
  -3.553  0.439E+00  0.437E+00
  -3.543  0.471E+00  0.469E+00
  -3.533  0.502E+00  0.500E+00
  -3.523  0.530E+00  0.528E+00
  -3.513  0.556E+00  0.553E+00
  -3.503  0.577E+00  0.575E+00
  -3.493  0.595E+00  0.592E+00
  -3.483  0.608E+00  0.605E+00
  -3.473  0.617E+00  0.614E+00
  -3.463  0.621E+00  0.619E+00
  -3.453  0.621E+00  0.619E+00
  -3.443  0.617E+00  0.615E+00
  -3.433  0.609E+00  0.607E+00
  -3.423  0.597E+00  0.595E+00
  -3.413  0.582E+00  0.580E+00
  -3.403  0.564E+00  0.562E+00
  -3.393  0.544E+00  0.542E+00
  -3.383  0.521E+00  0.519E+00
  -3.373  0.497E+00  0.495E+00
  -3.363  0.471E+00  0.470E+00
  -3.353  0.445E+00  0.443E+00
  -3.343  0.418E+00  0.417E+00
  -3.333  0.391E+00  0.390E+00
  -3.323  0.364E+00  0.363E+00
  -3.313  0.338E+00  0.336E+00
  -3.303  0.312E+00  0.311E+00
  -3.293  0.287E+00  0.286E+00
  -3.283  0.264E+00  0.263E+00
  -3.273  0.242E+00  0.241E+00
  -3.263  0.222E+00  0.221E+00
  -3.253  0.203E+00  0.203E+00
  -3.243  0.187E+00  0.187E+00
  -3.233  0.174E+00  0.173E+00
  -3.223  0.163E+00  0.162E+00
  -3.213  0.154E+00  0.154E+00
  -3.203  0.148E+00  0.147E+00
  -3.193  0.144E+00  0.144E+00
  -3.183  0.143E+00  0.143E+00
  -3.173  0.144E+00  0.144E+00
  -3.163  0.147E+00  0.147E+00
  -3.153  0.152E+00  0.151E+00
  -3.143  0.158E+00  0.157E+00
  -3.133  0.165E+00  0.164E+00
  -3.123  0.172E+00  0.172E+00
  -3.113  0.180E+00  0.180E+00
  -3.103  0.188E+00  0.187E+00
  -3.093  0.196E+00  0.195E+00
  -3.083  0.203E+00  0.202E+00
  -3.073  0.209E+00  0.208E+00
  -3.063  0.214E+00  0.213E+00
  -3.053  0.218E+00  0.217E+00
  -3.043  0.221E+00  0.220E+00
  -3.033  0.223E+00  0.222E+00
  -3.023  0.224E+00  0.223E+00
  -3.013  0.224E+00  0.223E+00
  -3.003  0.224E+00  0.223E+00
  -2.993  0.224E+00  0.223E+00
  -2.983  0.223E+00  0.222E+00
  -2.973  0.223E+00  0.222E+00
  -2.963  0.222E+00  0.221E+00
  -2.953  0.222E+00  0.221E+00
  -2.943  0.223E+00  0.222E+00
  -2.933  0.223E+00  0.222E+00
  -2.923  0.224E+00  0.223E+00
  -2.913  0.225E+00  0.224E+00
  -2.903  0.226E+00  0.225E+00
  -2.893  0.227E+00  0.226E+00
  -2.883  0.228E+00  0.226E+00
  -2.873  0.227E+00  0.226E+00
  -2.863  0.227E+00  0.225E+00
  -2.853  0.225E+00  0.224E+00
  -2.843  0.223E+00  0.222E+00
  -2.833  0.220E+00  0.219E+00
  -2.823  0.217E+00  0.216E+00
  -2.813  0.213E+00  0.212E+00
  -2.803  0.209E+00  0.208E+00
  -2.793  0.205E+00  0.203E+00
  -2.783  0.201E+00  0.200E+00
  -2.773  0.197E+00  0.196E+00
  -2.763  0.194E+00  0.193E+00
  -2.753  0.192E+00  0.191E+00
  -2.743  0.191E+00  0.190E+00
  -2.733  0.191E+00  0.190E+00
  -2.723  0.191E+00  0.190E+00
  -2.713  0.193E+00  0.192E+00
  -2.703  0.195E+00  0.194E+00
  -2.693  0.197E+00  0.197E+00
  -2.683  0.200E+00  0.199E+00
  -2.673  0.203E+00  0.202E+00
  -2.663  0.205E+00  0.204E+00
  -2.653  0.206E+00  0.206E+00
  -2.643  0.207E+00  0.206E+00
  -2.633  0.206E+00  0.205E+00
  -2.623  0.204E+00  0.203E+00
  -2.613  0.200E+00  0.200E+00
  -2.603  0.195E+00  0.194E+00
  -2.593  0.189E+00  0.188E+00
  -2.583  0.180E+00  0.180E+00
  -2.573  0.171E+00  0.171E+00
  -2.563  0.161E+00  0.160E+00
  -2.553  0.150E+00  0.149E+00
  -2.543  0.139E+00  0.138E+00
  -2.533  0.127E+00  0.126E+00
  -2.523  0.116E+00  0.115E+00
  -2.513  0.105E+00  0.104E+00
  -2.503  0.949E-01  0.945E-01
  -2.493  0.861E-01  0.857E-01
  -2.483  0.787E-01  0.784E-01
  -2.473  0.730E-01  0.727E-01
  -2.463  0.693E-01  0.690E-01
  -2.453  0.678E-01  0.675E-01
  -2.443  0.688E-01  0.685E-01
  -2.433  0.725E-01  0.721E-01
  -2.423  0.790E-01  0.787E-01
  -2.413  0.887E-01  0.883E-01
  -2.403  0.102E+00  0.101E+00
  -2.393  0.118E+00  0.118E+00
  -2.383  0.139E+00  0.138E+00
  -2.373  0.163E+00  0.162E+00
  -2.363  0.191E+00  0.190E+00
  -2.353  0.224E+00  0.223E+00
  -2.343  0.260E+00  0.259E+00
  -2.333  0.301E+00  0.299E+00
  -2.323  0.345E+00  0.344E+00
  -2.313  0.393E+00  0.392E+00
  -2.303  0.445E+00  0.443E+00
  -2.293  0.500E+00  0.497E+00
  -2.283  0.557E+00  0.554E+00
  -2.273  0.616E+00  0.613E+00
  -2.263  0.676E+00  0.673E+00
  -2.253  0.737E+00  0.733E+00
  -2.243  0.798E+00  0.794E+00
  -2.233  0.857E+00  0.853E+00
  -2.223  0.915E+00  0.911E+00
  -2.213  0.971E+00  0.966E+00
  -2.203  0.102E+01  0.102E+01
  -2.193  0.107E+01  0.107E+01
  -2.183  0.111E+01  0.111E+01
  -2.173  0.115E+01  0.115E+01
  -2.163  0.119E+01  0.118E+01
  -2.153  0.121E+01  0.121E+01
  -2.143  0.123E+01  0.123E+01
  -2.133  0.125E+01  0.124E+01
  -2.123  0.125E+01  0.125E+01
  -2.113  0.125E+01  0.125E+01
  -2.103  0.125E+01  0.124E+01
  -2.093  0.124E+01  0.123E+01
  -2.083  0.122E+01  0.122E+01
  -2.073  0.120E+01  0.120E+01
  -2.063  0.118E+01  0.117E+01
  -2.053  0.115E+01  0.115E+01
  -2.043  0.112E+01  0.112E+01
  -2.033  0.109E+01  0.108E+01
  -2.023  0.106E+01  0.105E+01
  -2.013  0.102E+01  0.102E+01
  -2.003  0.984E+00  0.979E+00
  -1.993  0.948E+00  0.943E+00
  -1.983  0.911E+00  0.907E+00
  -1.973  0.875E+00  0.871E+00
  -1.963  0.839E+00  0.835E+00
  -1.953  0.803E+00  0.799E+00
  -1.943  0.768E+00  0.764E+00
  -1.933  0.733E+00  0.730E+00
  -1.923  0.699E+00  0.696E+00
  -1.913  0.666E+00  0.663E+00
  -1.903  0.634E+00  0.630E+00
  -1.893  0.602E+00  0.599E+00
  -1.883  0.571E+00  0.569E+00
  -1.873  0.542E+00  0.539E+00
  -1.863  0.514E+00  0.511E+00
  -1.853  0.487E+00  0.485E+00
  -1.843  0.462E+00  0.460E+00
  -1.833  0.439E+00  0.436E+00
  -1.823  0.417E+00  0.415E+00
  -1.813  0.398E+00  0.395E+00
  -1.803  0.380E+00  0.378E+00
  -1.793  0.364E+00  0.362E+00
  -1.783  0.350E+00  0.348E+00
  -1.773  0.338E+00  0.336E+00
  -1.763  0.327E+00  0.325E+00
  -1.753  0.319E+00  0.317E+00
  -1.743  0.311E+00  0.310E+00
  -1.733  0.306E+00  0.304E+00
  -1.723  0.302E+00  0.300E+00
  -1.713  0.300E+00  0.298E+00
  -1.703  0.299E+00  0.297E+00
  -1.693  0.300E+00  0.298E+00
  -1.683  0.302E+00  0.300E+00
  -1.673  0.306E+00  0.304E+00
  -1.663  0.312E+00  0.310E+00
  -1.653  0.319E+00  0.317E+00
  -1.643  0.328E+00  0.326E+00
  -1.633  0.338E+00  0.336E+00
  -1.623  0.349E+00  0.346E+00
  -1.613  0.360E+00  0.358E+00
  -1.603  0.372E+00  0.369E+00
  -1.593  0.383E+00  0.381E+00
  -1.583  0.394E+00  0.391E+00
  -1.573  0.403E+00  0.400E+00
  -1.563  0.411E+00  0.408E+00
  -1.553  0.416E+00  0.413E+00
  -1.543  0.419E+00  0.416E+00
  -1.533  0.419E+00  0.417E+00
  -1.523  0.417E+00  0.414E+00
  -1.513  0.412E+00  0.409E+00
  -1.503  0.404E+00  0.402E+00
  -1.493  0.394E+00  0.392E+00
  -1.483  0.382E+00  0.380E+00
  -1.473  0.369E+00  0.367E+00
  -1.463  0.355E+00  0.352E+00
  -1.453  0.340E+00  0.338E+00
  -1.443  0.325E+00  0.323E+00
  -1.433  0.311E+00  0.309E+00
  -1.423  0.297E+00  0.296E+00
  -1.413  0.285E+00  0.283E+00
  -1.403  0.274E+00  0.273E+00
  -1.393  0.265E+00  0.264E+00
  -1.383  0.257E+00  0.256E+00
  -1.373  0.251E+00  0.249E+00
  -1.363  0.246E+00  0.244E+00
  -1.353  0.242E+00  0.240E+00
  -1.343  0.238E+00  0.237E+00
  -1.333  0.235E+00  0.234E+00
  -1.323  0.233E+00  0.231E+00
  -1.313  0.230E+00  0.228E+00
  -1.303  0.227E+00  0.225E+00
  -1.293  0.223E+00  0.222E+00
  -1.283  0.219E+00  0.218E+00
  -1.273  0.215E+00  0.214E+00
  -1.263  0.210E+00  0.209E+00
  -1.253  0.206E+00  0.205E+00
  -1.243  0.201E+00  0.200E+00
  -1.233  0.197E+00  0.196E+00
  -1.223  0.194E+00  0.193E+00
  -1.213  0.192E+00  0.191E+00
  -1.203  0.191E+00  0.189E+00
  -1.193  0.191E+00  0.189E+00
  -1.183  0.192E+00  0.191E+00
  -1.173  0.195E+00  0.194E+00
  -1.163  0.200E+00  0.199E+00
  -1.153  0.207E+00  0.206E+00
  -1.143  0.215E+00  0.214E+00
  -1.133  0.224E+00  0.223E+00
  -1.123  0.235E+00  0.234E+00
  -1.113  0.247E+00  0.245E+00
  -1.103  0.260E+00  0.258E+00
  -1.093  0.273E+00  0.271E+00
  -1.083  0.287E+00  0.286E+00
  -1.073  0.302E+00  0.300E+00
  -1.063  0.318E+00  0.316E+00
  -1.053  0.334E+00  0.332E+00
  -1.043  0.350E+00  0.348E+00
  -1.033  0.368E+00  0.366E+00
  -1.023  0.387E+00  0.384E+00
  -1.013  0.406E+00  0.404E+00
  -1.003  0.427E+00  0.424E+00
  -0.993  0.450E+00  0.447E+00
  -0.983  0.474E+00  0.471E+00
  -0.973  0.500E+00  0.497E+00
  -0.963  0.528E+00  0.524E+00
  -0.953  0.558E+00  0.554E+00
  -0.943  0.590E+00  0.586E+00
  -0.933  0.624E+00  0.620E+00
  -0.923  0.659E+00  0.655E+00
  -0.913  0.697E+00  0.692E+00
  -0.903  0.735E+00  0.731E+00
  -0.893  0.775E+00  0.770E+00
  -0.883  0.815E+00  0.810E+00
  -0.873  0.856E+00  0.851E+00
  -0.863  0.897E+00  0.891E+00
  -0.853  0.936E+00  0.930E+00
  -0.843  0.975E+00  0.969E+00
  -0.833  0.101E+01  0.101E+01
  -0.823  0.105E+01  0.104E+01
  -0.813  0.108E+01  0.108E+01
  -0.803  0.111E+01  0.111E+01
  -0.793  0.114E+01  0.114E+01
  -0.783  0.117E+01  0.116E+01
  -0.773  0.119E+01  0.119E+01
  -0.763  0.122E+01  0.121E+01
  -0.753  0.123E+01  0.122E+01
  -0.743  0.125E+01  0.124E+01
  -0.733  0.126E+01  0.125E+01
  -0.723  0.127E+01  0.126E+01
  -0.713  0.127E+01  0.126E+01
  -0.703  0.127E+01  0.126E+01
  -0.693  0.127E+01  0.126E+01
  -0.683  0.126E+01  0.125E+01
  -0.673  0.124E+01  0.124E+01
  -0.663  0.123E+01  0.122E+01
  -0.653  0.120E+01  0.120E+01
  -0.643  0.118E+01  0.117E+01
  -0.633  0.115E+01  0.114E+01
  -0.623  0.111E+01  0.110E+01
  -0.613  0.107E+01  0.107E+01
  -0.603  0.103E+01  0.102E+01
  -0.593  0.983E+00  0.977E+00
  -0.583  0.935E+00  0.929E+00
  -0.573  0.885E+00  0.879E+00
  -0.563  0.833E+00  0.827E+00
  -0.553  0.780E+00  0.775E+00
  -0.543  0.728E+00  0.723E+00
  -0.533  0.675E+00  0.671E+00
  -0.523  0.624E+00  0.620E+00
  -0.513  0.574E+00  0.570E+00
  -0.503  0.527E+00  0.523E+00
  -0.493  0.482E+00  0.478E+00
  -0.483  0.439E+00  0.436E+00
  -0.473  0.400E+00  0.397E+00
  -0.463  0.364E+00  0.361E+00
  -0.453  0.332E+00  0.329E+00
  -0.443  0.304E+00  0.301E+00
  -0.433  0.279E+00  0.277E+00
  -0.423  0.258E+00  0.256E+00
  -0.413  0.241E+00  0.239E+00
  -0.403  0.227E+00  0.225E+00
  -0.393  0.216E+00  0.215E+00
  -0.383  0.209E+00  0.207E+00
  -0.373  0.204E+00  0.203E+00
  -0.363  0.202E+00  0.200E+00
  -0.353  0.201E+00  0.199E+00
  -0.343  0.202E+00  0.200E+00
  -0.333  0.203E+00  0.202E+00
  -0.323  0.205E+00  0.204E+00
  -0.313  0.208E+00  0.206E+00
  -0.303  0.210E+00  0.208E+00
  -0.293  0.211E+00  0.210E+00
  -0.283  0.212E+00  0.211E+00
  -0.273  0.212E+00  0.210E+00
  -0.263  0.211E+00  0.209E+00
  -0.253  0.209E+00  0.207E+00
  -0.243  0.206E+00  0.205E+00
  -0.233  0.202E+00  0.201E+00
  -0.223  0.199E+00  0.197E+00
  -0.213  0.195E+00  0.193E+00
  -0.203  0.191E+00  0.190E+00
  -0.193  0.188E+00  0.187E+00
  -0.183  0.186E+00  0.184E+00
  -0.173  0.184E+00  0.183E+00
  -0.163  0.185E+00  0.183E+00
  -0.153  0.186E+00  0.185E+00
  -0.143  0.190E+00  0.188E+00
  -0.133  0.195E+00  0.193E+00
  -0.123  0.201E+00  0.200E+00
  -0.113  0.209E+00  0.208E+00
  -0.103  0.219E+00  0.217E+00
  -0.093  0.230E+00  0.228E+00
  -0.083  0.242E+00  0.240E+00
  -0.073  0.255E+00  0.253E+00
  -0.063  0.268E+00  0.266E+00
  -0.053  0.282E+00  0.280E+00
  -0.043  0.297E+00  0.294E+00
  -0.033  0.311E+00  0.309E+00
  -0.023  0.326E+00  0.323E+00
  -0.013  0.340E+00  0.337E+00
  -0.003  0.354E+00  0.351E+00
   0.007  0.368E+00  0.365E+00
   0.017  0.381E+00  0.377E+00
   0.027  0.393E+00  0.389E+00
   0.037  0.404E+00  0.400E+00
   0.047  0.413E+00  0.410E+00
   0.057  0.422E+00  0.418E+00
   0.067  0.428E+00  0.425E+00
   0.077  0.433E+00  0.429E+00
   0.087  0.435E+00  0.432E+00
   0.097  0.435E+00  0.432E+00
   0.107  0.432E+00  0.429E+00
   0.117  0.427E+00  0.423E+00
   0.127  0.418E+00  0.415E+00
   0.137  0.407E+00  0.404E+00
   0.147  0.393E+00  0.390E+00
   0.157  0.377E+00  0.374E+00
   0.167  0.358E+00  0.355E+00
   0.177  0.337E+00  0.335E+00
   0.187  0.315E+00  0.313E+00
   0.197  0.292E+00  0.289E+00
   0.207  0.268E+00  0.266E+00
   0.217  0.243E+00  0.241E+00
   0.227  0.219E+00  0.217E+00
   0.237  0.195E+00  0.194E+00
   0.247  0.173E+00  0.171E+00
   0.257  0.151E+00  0.150E+00
   0.267  0.131E+00  0.130E+00
   0.277  0.113E+00  0.112E+00
   0.287  0.957E-01  0.950E-01
   0.297  0.807E-01  0.801E-01
   0.307  0.675E-01  0.670E-01
   0.317  0.561E-01  0.557E-01
